# E (eV)   ldos(E)   pdos(E)   
 -14.011  0.000E+00  0.000E+00
 -14.001  0.609E-01  0.609E-01
 -13.991  0.121E+00  0.121E+00
 -13.981  0.181E+00  0.181E+00
 -13.971  0.240E+00  0.240E+00
 -13.961  0.299E+00  0.299E+00
 -13.951  0.358E+00  0.358E+00
 -13.941  0.415E+00  0.415E+00
 -13.931  0.472E+00  0.472E+00
 -13.921  0.245E+00  0.245E+00
 -13.911  0.249E+00  0.249E+00
 -13.901  0.253E+00  0.253E+00
 -13.891  0.257E+00  0.257E+00
 -13.881  0.261E+00  0.261E+00
 -13.871  0.265E+00  0.265E+00
 -13.861  0.269E+00  0.269E+00
 -13.851  0.273E+00  0.273E+00
 -13.841  0.276E+00  0.276E+00
 -13.831  0.280E+00  0.280E+00
 -13.821  0.284E+00  0.284E+00
 -13.811  0.288E+00  0.288E+00
 -13.801  0.292E+00  0.292E+00
 -13.791  0.295E+00  0.295E+00
 -13.781  0.299E+00  0.299E+00
 -13.771  0.303E+00  0.303E+00
 -13.761  0.299E+00  0.299E+00
 -13.751  0.292E+00  0.292E+00
 -13.741  0.286E+00  0.286E+00
 -13.731  0.279E+00  0.279E+00
 -13.721  0.273E+00  0.273E+00
 -13.711  0.267E+00  0.267E+00
 -13.701  0.261E+00  0.261E+00
 -13.691  0.254E+00  0.254E+00
 -13.681  0.253E+00  0.253E+00
 -13.671  0.254E+00  0.254E+00
 -13.661  0.255E+00  0.255E+00
 -13.651  0.256E+00  0.256E+00
 -13.641  0.257E+00  0.257E+00
 -13.631  0.258E+00  0.258E+00
 -13.621  0.259E+00  0.259E+00
 -13.611  0.260E+00  0.260E+00
 -13.601  0.261E+00  0.261E+00
 -13.591  0.262E+00  0.262E+00
 -13.581  0.263E+00  0.263E+00
 -13.571  0.264E+00  0.264E+00
 -13.561  0.265E+00  0.265E+00
 -13.551  0.266E+00  0.266E+00
 -13.541  0.267E+00  0.267E+00
 -13.531  0.267E+00  0.267E+00
 -13.521  0.268E+00  0.268E+00
 -13.511  0.269E+00  0.269E+00
 -13.501  0.270E+00  0.270E+00
 -13.491  0.271E+00  0.271E+00
 -13.481  0.272E+00  0.272E+00
 -13.471  0.273E+00  0.273E+00
 -13.461  0.274E+00  0.274E+00
 -13.451  0.275E+00  0.275E+00
 -13.441  0.255E+00  0.255E+00
 -13.431  0.254E+00  0.254E+00
 -13.421  0.253E+00  0.253E+00
 -13.411  0.253E+00  0.253E+00
 -13.401  0.252E+00  0.252E+00
 -13.391  0.251E+00  0.251E+00
 -13.381  0.251E+00  0.251E+00
 -13.371  0.250E+00  0.250E+00
 -13.361  0.249E+00  0.249E+00
 -13.351  0.249E+00  0.249E+00
 -13.341  0.248E+00  0.248E+00
 -13.331  0.247E+00  0.247E+00
 -13.321  0.247E+00  0.247E+00
 -13.311  0.246E+00  0.246E+00
 -13.301  0.245E+00  0.245E+00
 -13.291  0.245E+00  0.245E+00
 -13.281  0.245E+00  0.245E+00
 -13.271  0.246E+00  0.246E+00
 -13.261  0.246E+00  0.246E+00
 -13.251  0.247E+00  0.247E+00
 -13.241  0.247E+00  0.247E+00
 -13.231  0.247E+00  0.247E+00
 -13.221  0.248E+00  0.248E+00
 -13.211  0.248E+00  0.248E+00
 -13.201  0.249E+00  0.249E+00
 -13.191  0.249E+00  0.249E+00
 -13.181  0.249E+00  0.249E+00
 -13.171  0.250E+00  0.250E+00
 -13.161  0.250E+00  0.250E+00
 -13.151  0.251E+00  0.251E+00
 -13.141  0.251E+00  0.251E+00
 -13.131  0.251E+00  0.251E+00
 -13.121  0.252E+00  0.252E+00
 -13.111  0.252E+00  0.252E+00
 -13.101  0.253E+00  0.253E+00
 -13.091  0.253E+00  0.253E+00
 -13.081  0.253E+00  0.253E+00
 -13.071  0.254E+00  0.254E+00
 -13.061  0.254E+00  0.254E+00
 -13.051  0.253E+00  0.253E+00
 -13.041  0.251E+00  0.251E+00
 -13.031  0.250E+00  0.250E+00
 -13.021  0.248E+00  0.248E+00
 -13.011  0.246E+00  0.246E+00
 -13.001  0.244E+00  0.244E+00
 -12.991  0.242E+00  0.242E+00
 -12.981  0.240E+00  0.240E+00
 -12.971  0.240E+00  0.240E+00
 -12.961  0.241E+00  0.241E+00
 -12.951  0.241E+00  0.241E+00
 -12.941  0.241E+00  0.241E+00
 -12.931  0.241E+00  0.241E+00
 -12.921  0.241E+00  0.241E+00
 -12.911  0.241E+00  0.241E+00
 -12.901  0.241E+00  0.241E+00
 -12.891  0.241E+00  0.241E+00
 -12.881  0.241E+00  0.241E+00
 -12.871  0.241E+00  0.241E+00
 -12.861  0.241E+00  0.241E+00
 -12.851  0.241E+00  0.241E+00
 -12.841  0.241E+00  0.241E+00
 -12.831  0.242E+00  0.242E+00
 -12.821  0.242E+00  0.242E+00
 -12.811  0.242E+00  0.242E+00
 -12.801  0.242E+00  0.242E+00
 -12.791  0.242E+00  0.242E+00
 -12.781  0.242E+00  0.242E+00
 -12.771  0.242E+00  0.242E+00
 -12.761  0.242E+00  0.242E+00
 -12.751  0.243E+00  0.243E+00
 -12.741  0.243E+00  0.243E+00
 -12.731  0.244E+00  0.244E+00
 -12.721  0.244E+00  0.244E+00
 -12.711  0.244E+00  0.244E+00
 -12.701  0.245E+00  0.245E+00
 -12.691  0.245E+00  0.245E+00
 -12.681  0.246E+00  0.246E+00
 -12.671  0.246E+00  0.246E+00
 -12.661  0.247E+00  0.247E+00
 -12.651  0.247E+00  0.247E+00
 -12.641  0.247E+00  0.247E+00
 -12.631  0.248E+00  0.248E+00
 -12.621  0.248E+00  0.248E+00
 -12.611  0.249E+00  0.249E+00
 -12.601  0.249E+00  0.249E+00
 -12.591  0.250E+00  0.250E+00
 -12.581  0.250E+00  0.250E+00
 -12.571  0.251E+00  0.251E+00
 -12.561  0.251E+00  0.251E+00
 -12.551  0.251E+00  0.251E+00
 -12.541  0.252E+00  0.252E+00
 -12.531  0.252E+00  0.252E+00
 -12.521  0.248E+00  0.248E+00
 -12.511  0.248E+00  0.248E+00
 -12.501  0.248E+00  0.248E+00
 -12.491  0.248E+00  0.248E+00
 -12.481  0.248E+00  0.248E+00
 -12.471  0.249E+00  0.249E+00
 -12.461  0.249E+00  0.249E+00
 -12.451  0.249E+00  0.249E+00
 -12.441  0.249E+00  0.249E+00
 -12.431  0.249E+00  0.249E+00
 -12.421  0.249E+00  0.249E+00
 -12.411  0.249E+00  0.249E+00
 -12.401  0.249E+00  0.249E+00
 -12.391  0.250E+00  0.250E+00
 -12.381  0.251E+00  0.251E+00
 -12.371  0.252E+00  0.252E+00
 -12.361  0.253E+00  0.253E+00
 -12.351  0.254E+00  0.254E+00
 -12.341  0.255E+00  0.255E+00
 -12.331  0.256E+00  0.256E+00
 -12.321  0.257E+00  0.257E+00
 -12.311  0.258E+00  0.258E+00
 -12.301  0.259E+00  0.259E+00
 -12.291  0.260E+00  0.260E+00
 -12.281  0.261E+00  0.261E+00
 -12.271  0.262E+00  0.262E+00
 -12.261  0.263E+00  0.263E+00
 -12.251  0.264E+00  0.264E+00
 -12.241  0.265E+00  0.265E+00
 -12.231  0.266E+00  0.266E+00
 -12.221  0.267E+00  0.267E+00
 -12.211  0.268E+00  0.268E+00
 -12.201  0.269E+00  0.269E+00
 -12.191  0.270E+00  0.270E+00
 -12.181  0.271E+00  0.271E+00
 -12.171  0.272E+00  0.272E+00
 -12.161  0.274E+00  0.274E+00
 -12.151  0.275E+00  0.275E+00
 -12.141  0.277E+00  0.277E+00
 -12.131  0.279E+00  0.279E+00
 -12.121  0.282E+00  0.282E+00
 -12.111  0.284E+00  0.284E+00
 -12.101  0.287E+00  0.287E+00
 -12.091  0.289E+00  0.289E+00
 -12.081  0.292E+00  0.292E+00
 -12.071  0.294E+00  0.294E+00
 -12.061  0.297E+00  0.297E+00
 -12.051  0.299E+00  0.299E+00
 -12.041  0.302E+00  0.302E+00
 -12.031  0.304E+00  0.304E+00
 -12.021  0.306E+00  0.306E+00
 -12.011  0.309E+00  0.309E+00
 -12.001  0.311E+00  0.311E+00
 -11.991  0.314E+00  0.314E+00
 -11.981  0.316E+00  0.316E+00
 -11.971  0.319E+00  0.319E+00
 -11.961  0.321E+00  0.321E+00
 -11.951  0.324E+00  0.324E+00
 -11.941  0.327E+00  0.327E+00
 -11.931  0.329E+00  0.329E+00
 -11.921  0.332E+00  0.332E+00
 -11.911  0.337E+00  0.337E+00
 -11.901  0.345E+00  0.345E+00
 -11.891  0.353E+00  0.353E+00
 -11.881  0.362E+00  0.362E+00
 -11.871  0.370E+00  0.370E+00
 -11.861  0.378E+00  0.378E+00
 -11.851  0.387E+00  0.387E+00
 -11.841  0.395E+00  0.395E+00
 -11.831  0.403E+00  0.403E+00
 -11.821  0.955E+00  0.955E+00
 -11.811  0.804E+00  0.804E+00
 -11.801  0.652E+00  0.652E+00
 -11.791  0.499E+00  0.499E+00
 -11.781  0.345E+00  0.345E+00
 -11.771  0.307E+00  0.307E+00
 -11.761  0.300E+00  0.300E+00
 -11.751  0.294E+00  0.294E+00
 -11.741  0.288E+00  0.288E+00
 -11.731  0.282E+00  0.282E+00
 -11.721  0.276E+00  0.276E+00
 -11.711  0.270E+00  0.270E+00
 -11.701  0.264E+00  0.264E+00
 -11.691  0.258E+00  0.258E+00
 -11.681  0.252E+00  0.252E+00
 -11.671  0.245E+00  0.245E+00
 -11.661  0.239E+00  0.239E+00
 -11.651  0.233E+00  0.233E+00
 -11.641  0.227E+00  0.227E+00
 -11.631  0.221E+00  0.221E+00
 -11.621  0.215E+00  0.215E+00
 -11.611  0.209E+00  0.209E+00
 -11.601  0.203E+00  0.203E+00
 -11.591  0.197E+00  0.197E+00
 -11.581  0.191E+00  0.191E+00
 -11.571  0.185E+00  0.185E+00
 -11.561  0.179E+00  0.179E+00
 -11.551  0.173E+00  0.173E+00
 -11.541  0.167E+00  0.167E+00
 -11.531  0.161E+00  0.161E+00
 -11.521  0.155E+00  0.155E+00
 -11.511  0.157E+00  0.157E+00
 -11.501  0.159E+00  0.159E+00
 -11.491  0.162E+00  0.162E+00
 -11.481  0.165E+00  0.165E+00
 -11.471  0.167E+00  0.167E+00
 -11.461  0.170E+00  0.170E+00
 -11.451  0.172E+00  0.172E+00
 -11.441  0.175E+00  0.175E+00
 -11.431  0.177E+00  0.177E+00
 -11.421  0.179E+00  0.179E+00
 -11.411  0.182E+00  0.182E+00
 -11.401  0.184E+00  0.184E+00
 -11.391  0.186E+00  0.186E+00
 -11.381  0.188E+00  0.188E+00
 -11.371  0.191E+00  0.191E+00
 -11.361  0.193E+00  0.193E+00
 -11.351  0.195E+00  0.195E+00
 -11.341  0.873E-01  0.873E-01
 -11.331  0.854E-01  0.854E-01
 -11.321  0.836E-01  0.836E-01
 -11.311  0.817E-01  0.817E-01
 -11.301  0.799E-01  0.799E-01
 -11.291  0.781E-01  0.781E-01
 -11.281  0.763E-01  0.763E-01
 -11.271  0.745E-01  0.745E-01
 -11.261  0.727E-01  0.727E-01
 -11.251  0.710E-01  0.710E-01
 -11.241  0.692E-01  0.692E-01
 -11.231  0.675E-01  0.675E-01
 -11.221  0.658E-01  0.658E-01
 -11.211  0.641E-01  0.641E-01
 -11.201  0.624E-01  0.624E-01
 -11.191  0.607E-01  0.607E-01
 -11.181  0.590E-01  0.590E-01
 -11.171  0.574E-01  0.574E-01
 -11.161  0.557E-01  0.557E-01
 -11.151  0.541E-01  0.541E-01
 -11.141  0.525E-01  0.525E-01
 -11.131  0.509E-01  0.509E-01
 -11.121  0.493E-01  0.493E-01
 -11.111  0.478E-01  0.478E-01
 -11.101  0.462E-01  0.462E-01
 -11.091  0.447E-01  0.447E-01
 -11.081  0.431E-01  0.431E-01
 -11.071  0.416E-01  0.416E-01
 -11.061  0.401E-01  0.401E-01
 -11.051  0.386E-01  0.386E-01
 -11.041  0.372E-01  0.372E-01
 -11.031  0.357E-01  0.357E-01
 -11.021  0.343E-01  0.343E-01
 -11.011  0.328E-01  0.328E-01
 -11.001  0.314E-01  0.314E-01
 -10.991  0.300E-01  0.300E-01
 -10.981  0.286E-01  0.286E-01
 -10.971  0.272E-01  0.272E-01
 -10.961  0.259E-01  0.259E-01
 -10.951  0.245E-01  0.245E-01
 -10.941  0.232E-01  0.232E-01
 -10.931  0.219E-01  0.219E-01
 -10.921  0.206E-01  0.206E-01
 -10.911  0.193E-01  0.193E-01
 -10.901  0.180E-01  0.180E-01
 -10.891  0.167E-01  0.167E-01
 -10.881  0.155E-01  0.155E-01
 -10.871  0.142E-01  0.142E-01
 -10.861  0.130E-01  0.130E-01
 -10.851  0.118E-01  0.118E-01
 -10.841  0.106E-01  0.106E-01
 -10.831  0.940E-02  0.940E-02
 -10.821  0.823E-02  0.823E-02
 -10.811  0.707E-02  0.707E-02
 -10.801  0.593E-02  0.593E-02
 -10.791  0.480E-02  0.480E-02
 -10.781  0.368E-02  0.368E-02
 -10.771  0.258E-02  0.258E-02
 -10.761  0.149E-02  0.149E-02
 -10.751  0.413E-03  0.413E-03
 -10.741  0.112E-02  0.112E-02
 -10.731  0.299E-02  0.299E-02
 -10.721  0.485E-02  0.485E-02
 -10.711  0.670E-02  0.670E-02
 -10.701  0.852E-02  0.852E-02
 -10.691  0.103E-01  0.103E-01
 -10.681  0.121E-01  0.121E-01
 -10.671  0.139E-01  0.139E-01
 -10.661  0.156E-01  0.156E-01
 -10.651  0.174E-01  0.174E-01
 -10.641  0.191E-01  0.191E-01
 -10.631  0.208E-01  0.208E-01
 -10.621  0.225E-01  0.225E-01
 -10.611  0.241E-01  0.241E-01
 -10.601  0.258E-01  0.258E-01
 -10.591  0.274E-01  0.274E-01
 -10.581  0.290E-01  0.290E-01
 -10.571  0.306E-01  0.306E-01
 -10.561  0.322E-01  0.322E-01
 -10.551  0.338E-01  0.338E-01
 -10.541  0.353E-01  0.353E-01
 -10.531  0.368E-01  0.368E-01
 -10.521  0.383E-01  0.383E-01
 -10.511  0.398E-01  0.398E-01
 -10.501  0.413E-01  0.413E-01
 -10.491  0.427E-01  0.427E-01
 -10.481  0.442E-01  0.442E-01
 -10.471  0.456E-01  0.456E-01
 -10.461  0.470E-01  0.470E-01
 -10.451  0.484E-01  0.484E-01
 -10.441  0.497E-01  0.497E-01
 -10.431  0.511E-01  0.511E-01
 -10.421  0.524E-01  0.524E-01
 -10.411  0.537E-01  0.537E-01
 -10.401  0.550E-01  0.550E-01
 -10.391  0.563E-01  0.563E-01
 -10.381  0.576E-01  0.576E-01
 -10.371  0.588E-01  0.588E-01
 -10.361  0.600E-01  0.600E-01
 -10.351  0.612E-01  0.612E-01
 -10.341  0.624E-01  0.624E-01
 -10.331  0.636E-01  0.636E-01
 -10.321  0.647E-01  0.647E-01
 -10.311  0.659E-01  0.659E-01
 -10.301  0.670E-01  0.670E-01
 -10.291  0.681E-01  0.681E-01
 -10.281  0.692E-01  0.692E-01
 -10.271  0.702E-01  0.702E-01
 -10.261  0.713E-01  0.713E-01
 -10.251  0.723E-01  0.723E-01
 -10.241  0.733E-01  0.733E-01
 -10.231  0.743E-01  0.743E-01
 -10.221  0.753E-01  0.753E-01
 -10.211  0.763E-01  0.763E-01
 -10.201  0.772E-01  0.772E-01
 -10.191  0.781E-01  0.781E-01
 -10.181  0.790E-01  0.790E-01
 -10.171  0.663E+00  0.663E+00
 -10.161  0.113E+00  0.113E+00
 -10.151  0.122E+00  0.122E+00
 -10.141  0.130E+00  0.130E+00
 -10.131  0.138E+00  0.138E+00
 -10.121  0.146E+00  0.146E+00
 -10.111  0.155E+00  0.155E+00
 -10.101  0.176E+00  0.176E+00
 -10.091  0.196E+00  0.196E+00
 -10.081  0.217E+00  0.217E+00
 -10.071  0.237E+00  0.237E+00
 -10.061  0.258E+00  0.258E+00
 -10.051  0.278E+00  0.278E+00
 -10.041  0.299E+00  0.299E+00
 -10.031  0.320E+00  0.320E+00
 -10.021  0.340E+00  0.340E+00
 -10.011  0.361E+00  0.361E+00
 -10.001  0.382E+00  0.382E+00
  -9.991  0.402E+00  0.402E+00
  -9.981  0.423E+00  0.423E+00
  -9.971  0.444E+00  0.444E+00
  -9.961  0.235E+00  0.235E+00
  -9.951  0.232E+00  0.232E+00
  -9.941  0.230E+00  0.230E+00
  -9.931  0.228E+00  0.228E+00
  -9.921  0.225E+00  0.225E+00
  -9.911  0.223E+00  0.223E+00
  -9.901  0.220E+00  0.220E+00
  -9.891  0.218E+00  0.218E+00
  -9.881  0.215E+00  0.215E+00
  -9.871  0.213E+00  0.213E+00
  -9.861  0.210E+00  0.210E+00
  -9.851  0.208E+00  0.208E+00
  -9.841  0.205E+00  0.205E+00
  -9.831  0.202E+00  0.202E+00
  -9.821  0.200E+00  0.200E+00
  -9.811  0.197E+00  0.197E+00
  -9.801  0.195E+00  0.195E+00
  -9.791  0.192E+00  0.192E+00
  -9.781  0.190E+00  0.190E+00
  -9.771  0.187E+00  0.187E+00
  -9.761  0.185E+00  0.185E+00
  -9.751  0.182E+00  0.182E+00
  -9.741  0.180E+00  0.180E+00
  -9.731  0.177E+00  0.177E+00
  -9.721  0.174E+00  0.174E+00
  -9.711  0.172E+00  0.172E+00
  -9.701  0.169E+00  0.169E+00
  -9.691  0.167E+00  0.167E+00
  -9.681  0.164E+00  0.164E+00
  -9.671  0.161E+00  0.161E+00
  -9.661  0.159E+00  0.159E+00
  -9.651  0.157E+00  0.157E+00
  -9.641  0.155E+00  0.155E+00
  -9.631  0.153E+00  0.153E+00
  -9.621  0.150E+00  0.150E+00
  -9.611  0.148E+00  0.148E+00
  -9.601  0.146E+00  0.146E+00
  -9.591  0.145E+00  0.145E+00
  -9.581  0.143E+00  0.143E+00
  -9.571  0.142E+00  0.142E+00
  -9.561  0.140E+00  0.140E+00
  -9.551  0.139E+00  0.139E+00
  -9.541  0.137E+00  0.137E+00
  -9.531  0.136E+00  0.136E+00
  -9.521  0.134E+00  0.134E+00
  -9.511  0.133E+00  0.133E+00
  -9.501  0.131E+00  0.131E+00
  -9.491  0.130E+00  0.130E+00
  -9.481  0.128E+00  0.128E+00
  -9.471  0.128E+00  0.128E+00
  -9.461  0.127E+00  0.127E+00
  -9.451  0.127E+00  0.127E+00
  -9.441  0.126E+00  0.126E+00
  -9.431  0.126E+00  0.126E+00
  -9.421  0.125E+00  0.125E+00
  -9.411  0.125E+00  0.125E+00
  -9.401  0.124E+00  0.124E+00
  -9.391  0.124E+00  0.124E+00
  -9.381  0.123E+00  0.123E+00
  -9.371  0.123E+00  0.123E+00
  -9.361  0.122E+00  0.122E+00
  -9.351  0.122E+00  0.122E+00
  -9.341  0.121E+00  0.121E+00
  -9.331  0.120E+00  0.120E+00
  -9.321  0.120E+00  0.120E+00
  -9.311  0.119E+00  0.119E+00
  -9.301  0.119E+00  0.119E+00
  -9.291  0.118E+00  0.118E+00
  -9.281  0.118E+00  0.118E+00
  -9.271  0.117E+00  0.117E+00
  -9.261  0.117E+00  0.117E+00
  -9.251  0.116E+00  0.116E+00
  -9.241  0.116E+00  0.116E+00
  -9.231  0.115E+00  0.115E+00
  -9.221  0.115E+00  0.115E+00
  -9.211  0.114E+00  0.114E+00
  -9.201  0.114E+00  0.114E+00
  -9.191  0.113E+00  0.113E+00
  -9.181  0.113E+00  0.113E+00
  -9.171  0.112E+00  0.112E+00
  -9.161  0.112E+00  0.112E+00
  -9.151  0.111E+00  0.111E+00
  -9.141  0.111E+00  0.111E+00
  -9.131  0.110E+00  0.110E+00
  -9.121  0.110E+00  0.110E+00
  -9.111  0.109E+00  0.109E+00
  -9.101  0.109E+00  0.109E+00
  -9.091  0.108E+00  0.108E+00
  -9.081  0.108E+00  0.108E+00
  -9.071  0.107E+00  0.107E+00
  -9.061  0.107E+00  0.107E+00
  -9.051  0.106E+00  0.106E+00
  -9.041  0.106E+00  0.106E+00
  -9.031  0.105E+00  0.105E+00
  -9.021  0.105E+00  0.105E+00
  -9.011  0.104E+00  0.104E+00
  -9.001  0.104E+00  0.104E+00
  -8.991  0.103E+00  0.103E+00
  -8.981  0.103E+00  0.103E+00
  -8.971  0.102E+00  0.102E+00
  -8.961  0.102E+00  0.102E+00
  -8.951  0.101E+00  0.101E+00
  -8.941  0.101E+00  0.101E+00
  -8.931  0.100E+00  0.100E+00
  -8.921  0.999E-01  0.999E-01
  -8.911  0.994E-01  0.994E-01
  -8.901  0.989E-01  0.989E-01
  -8.891  0.984E-01  0.984E-01
  -8.881  0.979E-01  0.979E-01
  -8.871  0.975E-01  0.975E-01
  -8.861  0.970E-01  0.970E-01
  -8.851  0.965E-01  0.965E-01
  -8.841  0.960E-01  0.960E-01
  -8.831  0.955E-01  0.955E-01
  -8.821  0.950E-01  0.950E-01
  -8.811  0.945E-01  0.945E-01
  -8.801  0.940E-01  0.940E-01
  -8.791  0.935E-01  0.935E-01
  -8.781  0.930E-01  0.930E-01
  -8.771  0.925E-01  0.925E-01
  -8.761  0.920E-01  0.920E-01
  -8.751  0.916E-01  0.916E-01
  -8.741  0.911E-01  0.911E-01
  -8.731  0.846E-01  0.846E-01
  -8.721  0.844E-01  0.844E-01
  -8.711  0.841E-01  0.841E-01
  -8.701  0.839E-01  0.839E-01
  -8.691  0.837E-01  0.837E-01
  -8.681  0.835E-01  0.835E-01
  -8.671  0.832E-01  0.832E-01
  -8.661  0.830E-01  0.830E-01
  -8.651  0.828E-01  0.828E-01
  -8.641  0.826E-01  0.826E-01
  -8.631  0.823E-01  0.823E-01
  -8.621  0.821E-01  0.821E-01
  -8.611  0.819E-01  0.819E-01
  -8.601  0.816E-01  0.816E-01
  -8.591  0.814E-01  0.814E-01
  -8.581  0.812E-01  0.812E-01
  -8.571  0.809E-01  0.809E-01
  -8.561  0.807E-01  0.807E-01
  -8.551  0.805E-01  0.805E-01
  -8.541  0.802E-01  0.802E-01
  -8.531  0.800E-01  0.800E-01
  -8.521  0.798E-01  0.798E-01
  -8.511  0.795E-01  0.795E-01
  -8.501  0.793E-01  0.793E-01
  -8.491  0.791E-01  0.791E-01
  -8.481  0.788E-01  0.788E-01
  -8.471  0.786E-01  0.786E-01
  -8.461  0.783E-01  0.783E-01
  -8.451  0.781E-01  0.781E-01
  -8.441  0.779E-01  0.779E-01
  -8.431  0.776E-01  0.776E-01
  -8.421  0.774E-01  0.774E-01
  -8.411  0.772E-01  0.772E-01
  -8.401  0.769E-01  0.769E-01
  -8.391  0.767E-01  0.767E-01
  -8.381  0.764E-01  0.764E-01
  -8.371  0.762E-01  0.762E-01
  -8.361  0.760E-01  0.760E-01
  -8.351  0.757E-01  0.757E-01
  -8.341  0.755E-01  0.755E-01
  -8.331  0.752E-01  0.752E-01
  -8.321  0.750E-01  0.750E-01
  -8.311  0.748E-01  0.748E-01
  -8.301  0.745E-01  0.745E-01
  -8.291  0.743E-01  0.743E-01
  -8.281  0.741E-01  0.741E-01
  -8.271  0.738E-01  0.738E-01
  -8.261  0.736E-01  0.736E-01
  -8.251  0.733E-01  0.733E-01
  -8.241  0.731E-01  0.731E-01
  -8.231  0.729E-01  0.729E-01
  -8.221  0.726E-01  0.726E-01
  -8.211  0.724E-01  0.724E-01
  -8.201  0.721E-01  0.721E-01
  -8.191  0.719E-01  0.719E-01
  -8.181  0.717E-01  0.717E-01
  -8.171  0.714E-01  0.714E-01
  -8.161  0.712E-01  0.712E-01
  -8.151  0.710E-01  0.710E-01
  -8.141  0.707E-01  0.707E-01
  -8.131  0.705E-01  0.705E-01
  -8.121  0.702E-01  0.702E-01
  -8.111  0.700E-01  0.700E-01
  -8.101  0.698E-01  0.698E-01
  -8.091  0.695E-01  0.695E-01
  -8.081  0.693E-01  0.693E-01
  -8.071  0.690E-01  0.690E-01
  -8.061  0.688E-01  0.688E-01
  -8.051  0.686E-01  0.686E-01
  -8.041  0.683E-01  0.683E-01
  -8.031  0.680E-01  0.680E-01
  -8.021  0.675E-01  0.675E-01
  -8.011  0.671E-01  0.671E-01
  -8.001  0.667E-01  0.667E-01
  -7.991  0.662E-01  0.662E-01
  -7.981  0.658E-01  0.658E-01
  -7.971  0.653E-01  0.653E-01
  -7.961  0.649E-01  0.649E-01
  -7.951  0.645E-01  0.645E-01
  -7.941  0.640E-01  0.640E-01
  -7.931  0.636E-01  0.636E-01
  -7.921  0.632E-01  0.632E-01
  -7.911  0.627E-01  0.627E-01
  -7.901  0.623E-01  0.623E-01
  -7.891  0.618E-01  0.618E-01
  -7.881  0.614E-01  0.614E-01
  -7.871  0.610E-01  0.610E-01
  -7.861  0.605E-01  0.605E-01
  -7.851  0.601E-01  0.601E-01
  -7.841  0.597E-01  0.597E-01
  -7.831  0.592E-01  0.592E-01
  -7.821  0.588E-01  0.588E-01
  -7.811  0.584E-01  0.584E-01
  -7.801  0.579E-01  0.579E-01
  -7.791  0.575E-01  0.575E-01
  -7.781  0.571E-01  0.571E-01
  -7.771  0.567E-01  0.567E-01
  -7.761  0.563E-01  0.563E-01
  -7.751  0.561E-01  0.561E-01
  -7.741  0.560E-01  0.560E-01
  -7.731  0.558E-01  0.558E-01
  -7.721  0.557E-01  0.557E-01
  -7.711  0.555E-01  0.555E-01
  -7.701  0.554E-01  0.554E-01
  -7.691  0.552E-01  0.552E-01
  -7.681  0.551E-01  0.551E-01
  -7.671  0.550E-01  0.550E-01
  -7.661  0.548E-01  0.548E-01
  -7.651  0.547E-01  0.547E-01
  -7.641  0.545E-01  0.545E-01
  -7.631  0.544E-01  0.544E-01
  -7.621  0.542E-01  0.542E-01
  -7.611  0.541E-01  0.541E-01
  -7.601  0.539E-01  0.539E-01
  -7.591  0.538E-01  0.538E-01
  -7.581  0.536E-01  0.536E-01
  -7.571  0.535E-01  0.535E-01
  -7.561  0.533E-01  0.533E-01
  -7.551  0.532E-01  0.532E-01
  -7.541  0.530E-01  0.530E-01
  -7.531  0.529E-01  0.529E-01
  -7.521  0.528E-01  0.528E-01
  -7.511  0.526E-01  0.526E-01
  -7.501  0.525E-01  0.525E-01
  -7.491  0.523E-01  0.523E-01
  -7.481  0.522E-01  0.522E-01
  -7.471  0.520E-01  0.520E-01
  -7.461  0.519E-01  0.519E-01
  -7.451  0.517E-01  0.517E-01
  -7.441  0.516E-01  0.516E-01
  -7.431  0.514E-01  0.514E-01
  -7.421  0.513E-01  0.513E-01
  -7.411  0.511E-01  0.511E-01
  -7.401  0.510E-01  0.510E-01
  -7.391  0.509E-01  0.509E-01
  -7.381  0.507E-01  0.507E-01
  -7.371  0.506E-01  0.506E-01
  -7.361  0.505E-01  0.505E-01
  -7.351  0.504E-01  0.504E-01
  -7.341  0.503E-01  0.503E-01
  -7.331  0.503E-01  0.503E-01
  -7.321  0.503E-01  0.503E-01
  -7.311  0.503E-01  0.503E-01
  -7.301  0.503E-01  0.503E-01
  -7.291  0.504E-01  0.504E-01
  -7.281  0.504E-01  0.504E-01
  -7.271  0.505E-01  0.505E-01
  -7.261  0.507E-01  0.507E-01
  -7.251  0.508E-01  0.508E-01
  -7.241  0.510E-01  0.510E-01
  -7.231  0.512E-01  0.512E-01
  -7.221  0.514E-01  0.514E-01
  -7.211  0.516E-01  0.516E-01
  -7.201  0.519E-01  0.519E-01
  -7.191  0.522E-01  0.522E-01
  -7.181  0.525E-01  0.525E-01
  -7.171  0.528E-01  0.528E-01
  -7.161  0.531E-01  0.531E-01
  -7.151  0.507E-01  0.507E-01
  -7.141  0.506E-01  0.506E-01
  -7.131  0.505E-01  0.505E-01
  -7.121  0.505E-01  0.505E-01
  -7.111  0.504E-01  0.504E-01
  -7.101  0.504E-01  0.504E-01
  -7.091  0.503E-01  0.503E-01
  -7.081  0.502E-01  0.502E-01
  -7.071  0.502E-01  0.502E-01
  -7.061  0.501E-01  0.501E-01
  -7.051  0.501E-01  0.501E-01
  -7.041  0.500E-01  0.500E-01
  -7.031  0.500E-01  0.500E-01
  -7.021  0.499E-01  0.499E-01
  -7.011  0.499E-01  0.499E-01
  -7.001  0.498E-01  0.498E-01
  -6.991  0.498E-01  0.498E-01
  -6.981  0.497E-01  0.497E-01
  -6.971  0.497E-01  0.497E-01
  -6.961  0.497E-01  0.497E-01
  -6.951  0.496E-01  0.496E-01
  -6.941  0.496E-01  0.496E-01
  -6.931  0.496E-01  0.496E-01
  -6.921  0.495E-01  0.495E-01
  -6.911  0.495E-01  0.495E-01
  -6.901  0.495E-01  0.495E-01
  -6.891  0.494E-01  0.494E-01
  -6.881  0.494E-01  0.494E-01
  -6.871  0.494E-01  0.494E-01
  -6.861  0.498E-01  0.498E-01
  -6.851  0.498E-01  0.498E-01
  -6.841  0.497E-01  0.497E-01
  -6.831  0.497E-01  0.497E-01
  -6.821  0.498E-01  0.498E-01
  -6.811  0.498E-01  0.498E-01
  -6.801  0.498E-01  0.498E-01
  -6.791  0.498E-01  0.498E-01
  -6.781  0.498E-01  0.498E-01
  -6.771  0.498E-01  0.498E-01
  -6.761  0.498E-01  0.498E-01
  -6.751  0.498E-01  0.498E-01
  -6.741  0.498E-01  0.498E-01
  -6.731  0.498E-01  0.498E-01
  -6.721  0.498E-01  0.498E-01
  -6.711  0.498E-01  0.498E-01
  -6.701  0.498E-01  0.498E-01
  -6.691  0.498E-01  0.498E-01
  -6.681  0.498E-01  0.498E-01
  -6.671  0.498E-01  0.498E-01
  -6.661  0.499E-01  0.499E-01
  -6.651  0.499E-01  0.499E-01
  -6.641  0.499E-01  0.499E-01
  -6.631  0.498E-01  0.498E-01
  -6.621  0.497E-01  0.497E-01
  -6.611  0.496E-01  0.496E-01
  -6.601  0.494E-01  0.494E-01
  -6.591  0.493E-01  0.493E-01
  -6.581  0.492E-01  0.492E-01
  -6.571  0.490E-01  0.490E-01
  -6.561  0.489E-01  0.489E-01
  -6.551  0.487E-01  0.487E-01
  -6.541  0.486E-01  0.486E-01
  -6.531  0.484E-01  0.484E-01
  -6.521  0.483E-01  0.483E-01
  -6.511  0.482E-01  0.482E-01
  -6.501  0.480E-01  0.480E-01
  -6.491  0.479E-01  0.479E-01
  -6.481  0.477E-01  0.477E-01
  -6.471  0.476E-01  0.476E-01
  -6.461  0.475E-01  0.475E-01
  -6.451  0.473E-01  0.473E-01
  -6.441  0.472E-01  0.472E-01
  -6.431  0.470E-01  0.470E-01
  -6.421  0.469E-01  0.469E-01
  -6.411  0.467E-01  0.467E-01
  -6.401  0.466E-01  0.466E-01
  -6.391  0.464E-01  0.464E-01
  -6.381  0.463E-01  0.463E-01
  -6.371  0.461E-01  0.461E-01
  -6.361  0.460E-01  0.460E-01
  -6.351  0.458E-01  0.458E-01
  -6.341  0.456E-01  0.456E-01
  -6.331  0.455E-01  0.455E-01
  -6.321  0.453E-01  0.453E-01
  -6.311  0.452E-01  0.452E-01
  -6.301  0.450E-01  0.450E-01
  -6.291  0.448E-01  0.448E-01
  -6.281  0.447E-01  0.447E-01
  -6.271  0.445E-01  0.445E-01
  -6.261  0.443E-01  0.443E-01
  -6.251  0.442E-01  0.442E-01
  -6.241  0.440E-01  0.440E-01
  -6.231  0.438E-01  0.438E-01
  -6.221  0.441E-01  0.441E-01
  -6.211  0.439E-01  0.439E-01
  -6.201  0.438E-01  0.438E-01
  -6.191  0.452E-01  0.452E-01
  -6.181  0.499E-01  0.499E-01
  -6.171  0.544E-01  0.544E-01
  -6.161  0.585E-01  0.585E-01
  -6.151  0.624E-01  0.624E-01
  -6.141  0.659E-01  0.659E-01
  -6.131  0.692E-01  0.692E-01
  -6.121  0.722E-01  0.722E-01
  -6.111  0.748E-01  0.748E-01
  -6.101  0.772E-01  0.772E-01
  -6.091  0.793E-01  0.793E-01
  -6.081  0.811E-01  0.811E-01
  -6.071  0.825E-01  0.825E-01
  -6.061  0.837E-01  0.837E-01
  -6.051  0.859E-01  0.859E-01
  -6.041  0.970E-01  0.970E-01
  -6.031  0.109E+00  0.109E+00
  -6.021  0.121E+00  0.121E+00
  -6.011  0.134E+00  0.134E+00
  -6.001  0.148E+00  0.148E+00
  -5.991  0.127E-01  0.127E-01
  -5.981  0.127E-01  0.127E-01
  -5.971  0.127E-01  0.127E-01
  -5.961  0.126E-01  0.126E-01
  -5.951  0.126E-01  0.126E-01
  -5.941  0.126E-01  0.126E-01
  -5.931  0.126E-01  0.126E-01
  -5.921  0.126E-01  0.126E-01
  -5.911  0.146E-01  0.146E-01
  -5.901  0.147E-01  0.147E-01
  -5.891  0.149E-01  0.149E-01
  -5.881  0.150E-01  0.150E-01
  -5.871  0.151E-01  0.151E-01
  -5.861  0.151E-01  0.151E-01
  -5.851  0.152E-01  0.152E-01
  -5.841  0.153E-01  0.153E-01
  -5.831  0.153E-01  0.153E-01
  -5.821  0.153E-01  0.153E-01
  -5.811  0.153E-01  0.153E-01
  -5.801  0.153E-01  0.153E-01
  -5.791  0.153E-01  0.153E-01
  -5.781  0.153E-01  0.153E-01
  -5.771  0.152E-01  0.152E-01
  -5.761  0.151E-01  0.151E-01
  -5.751  0.149E-01  0.149E-01
  -5.741  0.147E-01  0.147E-01
  -5.731  0.145E-01  0.145E-01
  -5.721  0.143E-01  0.143E-01
  -5.711  0.141E-01  0.141E-01
  -5.701  0.142E-01  0.142E-01
  -5.691  0.143E-01  0.143E-01
  -5.681  0.144E-01  0.144E-01
  -5.671  0.144E-01  0.144E-01
  -5.661  0.145E-01  0.145E-01
  -5.651  0.145E-01  0.145E-01
  -5.641  0.145E-01  0.145E-01
  -5.631  0.145E-01  0.145E-01
  -5.621  0.144E-01  0.144E-01
  -5.611  0.144E-01  0.144E-01
  -5.601  0.143E-01  0.143E-01
  -5.591  0.142E-01  0.142E-01
  -5.581  0.141E-01  0.141E-01
  -5.571  0.140E-01  0.140E-01
  -5.561  0.138E-01  0.138E-01
  -5.551  0.138E-01  0.138E-01
  -5.541  0.143E-01  0.143E-01
  -5.531  0.152E-01  0.152E-01
  -5.521  0.166E-01  0.166E-01
  -5.511  0.183E-01  0.183E-01
  -5.501  0.204E-01  0.204E-01
  -5.491  0.229E-01  0.229E-01
  -5.481  0.259E-01  0.259E-01
  -5.471  0.298E-01  0.298E-01
  -5.461  0.341E-01  0.341E-01
  -5.451  0.388E-01  0.388E-01
  -5.441  0.470E-01  0.470E-01
  -5.431  0.520E-01  0.520E-01
  -5.421  0.485E-01  0.485E-01
  -5.411  0.219E-01  0.219E-01
  -5.401  0.214E-01  0.214E-01
  -5.391  0.209E-01  0.209E-01
  -5.381  0.203E-01  0.203E-01
  -5.371  0.196E-01  0.196E-01
  -5.361  0.188E-01  0.188E-01
  -5.351  0.180E-01  0.180E-01
  -5.341  0.171E-01  0.171E-01
  -5.331  0.161E-01  0.161E-01
  -5.321  0.151E-01  0.151E-01
  -5.311  0.140E-01  0.140E-01
  -5.301  0.128E-01  0.128E-01
  -5.291  0.105E-01  0.105E-01
  -5.281  0.532E-02  0.532E-02
  -5.271  0.539E-02  0.539E-02
  -5.261  0.545E-02  0.545E-02
  -5.251  0.551E-02  0.551E-02
  -5.241  0.557E-02  0.557E-02
  -5.231  0.562E-02  0.562E-02
  -5.221  0.568E-02  0.568E-02
  -5.211  0.573E-02  0.573E-02
  -5.201  0.578E-02  0.578E-02
  -5.191  0.583E-02  0.583E-02
  -5.181  0.588E-02  0.588E-02
  -5.171  0.593E-02  0.593E-02
  -5.161  0.597E-02  0.597E-02
  -5.151  0.601E-02  0.601E-02
  -5.141  0.605E-02  0.605E-02
  -5.131  0.609E-02  0.609E-02
  -5.121  0.613E-02  0.613E-02
  -5.111  0.616E-02  0.616E-02
  -5.101  0.620E-02  0.620E-02
  -5.091  0.623E-02  0.623E-02
  -5.081  0.626E-02  0.626E-02
  -5.071  0.451E-01  0.451E-01
  -5.061  0.415E-01  0.415E-01
  -5.051  0.327E-01  0.327E-01
  -5.041  0.332E-01  0.332E-01
  -5.031  0.332E-01  0.332E-01
  -5.021  0.328E-01  0.328E-01
  -5.011  0.319E-01  0.319E-01
  -5.001  0.306E-01  0.306E-01
  -4.991  0.249E-01  0.249E-01
  -4.981  0.199E-01  0.199E-01
  -4.971  0.204E-01  0.204E-01
  -4.961  0.207E-01  0.207E-01
  -4.951  0.210E-01  0.210E-01
  -4.941  0.213E-01  0.213E-01
  -4.931  0.215E-01  0.215E-01
  -4.921  0.217E-01  0.217E-01
  -4.911  0.218E-01  0.218E-01
  -4.901  0.219E-01  0.219E-01
  -4.891  0.219E-01  0.219E-01
  -4.881  0.219E-01  0.219E-01
  -4.871  0.219E-01  0.219E-01
  -4.861  0.217E-01  0.217E-01
  -4.851  0.216E-01  0.216E-01
  -4.841  0.214E-01  0.214E-01
  -4.831  0.211E-01  0.211E-01
  -4.821  0.208E-01  0.208E-01
  -4.811  0.204E-01  0.204E-01
  -4.801  0.200E-01  0.200E-01
  -4.791  0.196E-01  0.196E-01
  -4.781  0.196E-01  0.196E-01
  -4.771  0.203E-01  0.203E-01
  -4.761  0.201E-01  0.201E-01
  -4.751  0.200E-01  0.200E-01
  -4.741  0.198E-01  0.198E-01
  -4.731  0.197E-01  0.197E-01
  -4.721  0.195E-01  0.195E-01
  -4.711  0.194E-01  0.194E-01
  -4.701  0.193E-01  0.193E-01
  -4.691  0.191E-01  0.191E-01
  -4.681  0.190E-01  0.190E-01
  -4.671  0.189E-01  0.189E-01
  -4.661  0.188E-01  0.188E-01
  -4.651  0.187E-01  0.187E-01
  -4.641  0.186E-01  0.186E-01
  -4.631  0.185E-01  0.185E-01
  -4.621  0.186E-01  0.186E-01
  -4.611  0.186E-01  0.186E-01
  -4.601  0.185E-01  0.185E-01
  -4.591  0.185E-01  0.185E-01
  -4.581  0.184E-01  0.184E-01
  -4.571  0.184E-01  0.184E-01
  -4.561  0.183E-01  0.183E-01
  -4.551  0.181E-01  0.181E-01
  -4.541  0.180E-01  0.180E-01
  -4.531  0.179E-01  0.179E-01
  -4.521  0.179E-01  0.179E-01
  -4.511  0.178E-01  0.178E-01
  -4.501  0.178E-01  0.178E-01
  -4.491  0.177E-01  0.177E-01
  -4.481  0.176E-01  0.176E-01
  -4.471  0.176E-01  0.176E-01
  -4.461  0.175E-01  0.175E-01
  -4.451  0.175E-01  0.175E-01
  -4.441  0.175E-01  0.175E-01
  -4.431  0.175E-01  0.175E-01
  -4.421  0.175E-01  0.175E-01
  -4.411  0.176E-01  0.176E-01
  -4.401  0.176E-01  0.176E-01
  -4.391  0.176E-01  0.176E-01
  -4.381  0.177E-01  0.177E-01
  -4.371  0.178E-01  0.178E-01
  -4.361  0.178E-01  0.178E-01
  -4.351  0.179E-01  0.179E-01
  -4.341  0.180E-01  0.180E-01
  -4.331  0.180E-01  0.180E-01
  -4.321  0.181E-01  0.181E-01
  -4.311  0.182E-01  0.182E-01
  -4.301  0.183E-01  0.183E-01
  -4.291  0.184E-01  0.184E-01
  -4.281  0.186E-01  0.186E-01
  -4.271  0.187E-01  0.187E-01
  -4.261  0.189E-01  0.189E-01
  -4.251  0.190E-01  0.190E-01
  -4.241  0.191E-01  0.191E-01
  -4.231  0.193E-01  0.193E-01
  -4.221  0.196E-01  0.196E-01
  -4.211  0.199E-01  0.199E-01
  -4.201  0.202E-01  0.202E-01
  -4.191  0.206E-01  0.206E-01
  -4.181  0.209E-01  0.209E-01
  -4.171  0.213E-01  0.213E-01
  -4.161  0.216E-01  0.216E-01
  -4.151  0.220E-01  0.220E-01
  -4.141  0.224E-01  0.224E-01
  -4.131  0.227E-01  0.227E-01
  -4.121  0.231E-01  0.231E-01
  -4.111  0.235E-01  0.235E-01
  -4.101  0.239E-01  0.239E-01
  -4.091  0.243E-01  0.243E-01
  -4.081  0.246E-01  0.246E-01
  -4.071  0.250E-01  0.250E-01
  -4.061  0.254E-01  0.254E-01
  -4.051  0.258E-01  0.258E-01
  -4.041  0.262E-01  0.262E-01
  -4.031  0.267E-01  0.267E-01
  -4.021  0.271E-01  0.271E-01
  -4.011  0.275E-01  0.275E-01
  -4.001  0.279E-01  0.279E-01
  -3.991  0.284E-01  0.284E-01
  -3.981  0.288E-01  0.288E-01
  -3.971  0.295E-01  0.295E-01
  -3.961  0.305E-01  0.305E-01
  -3.951  0.315E-01  0.315E-01
  -3.941  0.325E-01  0.325E-01
  -3.931  0.336E-01  0.336E-01
  -3.921  0.347E-01  0.347E-01
  -3.911  0.139E+00  0.139E+00
  -3.901  0.617E-01  0.617E-01
  -3.891  0.241E-01  0.241E-01
  -3.881  0.236E-01  0.236E-01
  -3.871  0.230E-01  0.230E-01
  -3.861  0.225E-01  0.225E-01
  -3.851  0.220E-01  0.220E-01
  -3.841  0.214E-01  0.214E-01
  -3.831  0.209E-01  0.209E-01
  -3.821  0.204E-01  0.204E-01
  -3.811  0.199E-01  0.199E-01
  -3.801  0.194E-01  0.194E-01
  -3.791  0.188E-01  0.188E-01
  -3.781  0.183E-01  0.183E-01
  -3.771  0.179E-01  0.179E-01
  -3.761  0.174E-01  0.174E-01
  -3.751  0.169E-01  0.169E-01
  -3.741  0.164E-01  0.164E-01
  -3.731  0.159E-01  0.159E-01
  -3.721  0.155E-01  0.155E-01
  -3.711  0.150E-01  0.150E-01
  -3.701  0.145E-01  0.145E-01
  -3.691  0.141E-01  0.141E-01
  -3.681  0.137E-01  0.137E-01
  -3.671  0.132E-01  0.132E-01
  -3.661  0.128E-01  0.128E-01
  -3.651  0.123E-01  0.123E-01
  -3.641  0.119E-01  0.119E-01
  -3.631  0.115E-01  0.115E-01
  -3.621  0.111E-01  0.111E-01
  -3.611  0.107E-01  0.107E-01
  -3.601  0.108E-01  0.108E-01
  -3.591  0.110E-01  0.110E-01
  -3.581  0.112E-01  0.112E-01
  -3.571  0.113E-01  0.113E-01
  -3.561  0.115E-01  0.115E-01
  -3.551  0.116E-01  0.116E-01
  -3.541  0.118E-01  0.118E-01
  -3.531  0.119E-01  0.119E-01
  -3.521  0.120E-01  0.120E-01
  -3.511  0.122E-01  0.122E-01
  -3.501  0.123E-01  0.123E-01
  -3.491  0.124E-01  0.124E-01
  -3.481  0.125E-01  0.125E-01
  -3.471  0.126E-01  0.126E-01
  -3.461  0.127E-01  0.127E-01
  -3.451  0.128E-01  0.128E-01
  -3.441  0.129E-01  0.129E-01
  -3.431  0.603E-02  0.603E-02
  -3.421  0.586E-02  0.586E-02
  -3.411  0.570E-02  0.570E-02
  -3.401  0.554E-02  0.554E-02
  -3.391  0.538E-02  0.538E-02
  -3.381  0.522E-02  0.522E-02
  -3.371  0.507E-02  0.507E-02
  -3.361  0.491E-02  0.491E-02
  -3.351  0.476E-02  0.476E-02
  -3.341  0.461E-02  0.461E-02
  -3.331  0.447E-02  0.447E-02
  -3.321  0.432E-02  0.432E-02
  -3.311  0.418E-02  0.418E-02
  -3.301  0.404E-02  0.404E-02
  -3.291  0.390E-02  0.390E-02
  -3.281  0.376E-02  0.376E-02
  -3.271  0.363E-02  0.363E-02
  -3.261  0.350E-02  0.350E-02
  -3.251  0.337E-02  0.337E-02
  -3.241  0.324E-02  0.324E-02
  -3.231  0.311E-02  0.311E-02
  -3.221  0.299E-02  0.299E-02
  -3.211  0.287E-02  0.287E-02
  -3.201  0.275E-02  0.275E-02
  -3.191  0.263E-02  0.263E-02
  -3.181  0.251E-02  0.251E-02
  -3.171  0.240E-02  0.240E-02
  -3.161  0.229E-02  0.229E-02
  -3.151  0.218E-02  0.218E-02
  -3.141  0.207E-02  0.207E-02
  -3.131  0.197E-02  0.197E-02
  -3.121  0.187E-02  0.187E-02
  -3.111  0.176E-02  0.176E-02
  -3.101  0.167E-02  0.167E-02
  -3.091  0.157E-02  0.157E-02
  -3.081  0.147E-02  0.147E-02
  -3.071  0.138E-02  0.138E-02
  -3.061  0.129E-02  0.129E-02
  -3.051  0.120E-02  0.120E-02
  -3.041  0.112E-02  0.112E-02
  -3.031  0.103E-02  0.103E-02
  -3.021  0.950E-03  0.950E-03
  -3.011  0.870E-03  0.870E-03
  -3.001  0.792E-03  0.792E-03
  -2.991  0.716E-03  0.716E-03
  -2.981  0.642E-03  0.642E-03
  -2.971  0.570E-03  0.570E-03
  -2.961  0.500E-03  0.500E-03
  -2.951  0.433E-03  0.433E-03
  -2.941  0.367E-03  0.367E-03
  -2.931  0.304E-03  0.304E-03
  -2.921  0.242E-03  0.242E-03
  -2.911  0.183E-03  0.183E-03
  -2.901  0.126E-03  0.126E-03
  -2.891  0.708E-04  0.708E-04
  -2.881  0.177E-04  0.177E-04
  -2.871  0.128E-03  0.128E-03
  -2.861  0.326E-03  0.326E-03
  -2.851  0.521E-03  0.521E-03
  -2.841  0.714E-03  0.714E-03
  -2.831  0.905E-03  0.905E-03
  -2.821  0.109E-02  0.109E-02
  -2.811  0.128E-02  0.128E-02
  -2.801  0.146E-02  0.146E-02
  -2.791  0.164E-02  0.164E-02
  -2.781  0.182E-02  0.182E-02
  -2.771  0.200E-02  0.200E-02
  -2.761  0.218E-02  0.218E-02
  -2.751  0.235E-02  0.235E-02
  -2.741  0.252E-02  0.252E-02
  -2.731  0.268E-02  0.268E-02
  -2.721  0.285E-02  0.285E-02
  -2.711  0.301E-02  0.301E-02
  -2.701  0.317E-02  0.317E-02
  -2.691  0.333E-02  0.333E-02
  -2.681  0.349E-02  0.349E-02
  -2.671  0.364E-02  0.364E-02
  -2.661  0.379E-02  0.379E-02
  -2.651  0.394E-02  0.394E-02
  -2.641  0.408E-02  0.408E-02
  -2.631  0.423E-02  0.423E-02
  -2.621  0.437E-02  0.437E-02
  -2.611  0.451E-02  0.451E-02
  -2.601  0.465E-02  0.465E-02
  -2.591  0.478E-02  0.478E-02
  -2.581  0.491E-02  0.491E-02
  -2.571  0.504E-02  0.504E-02
  -2.561  0.517E-02  0.517E-02
  -2.551  0.530E-02  0.530E-02
  -2.541  0.542E-02  0.542E-02
  -2.531  0.554E-02  0.554E-02
  -2.521  0.566E-02  0.566E-02
  -2.511  0.577E-02  0.577E-02
  -2.501  0.589E-02  0.589E-02
  -2.491  0.600E-02  0.600E-02
  -2.481  0.611E-02  0.611E-02
  -2.471  0.621E-02  0.621E-02
  -2.461  0.632E-02  0.632E-02
  -2.451  0.642E-02  0.642E-02
  -2.441  0.652E-02  0.652E-02
  -2.431  0.661E-02  0.661E-02
  -2.421  0.671E-02  0.671E-02
  -2.411  0.680E-02  0.680E-02
  -2.401  0.689E-02  0.689E-02
  -2.391  0.698E-02  0.698E-02
  -2.381  0.706E-02  0.706E-02
  -2.371  0.715E-02  0.715E-02
  -2.361  0.723E-02  0.723E-02
  -2.351  0.730E-02  0.730E-02
  -2.341  0.411E-01  0.411E-01
  -2.331  0.322E-01  0.322E-01
  -2.321  0.231E-01  0.231E-01
  -2.311  0.137E-01  0.137E-01
  -2.301  0.125E-01  0.125E-01
  -2.291  0.136E-01  0.136E-01
  -2.281  0.147E-01  0.147E-01
  -2.271  0.158E-01  0.158E-01
  -2.261  0.170E-01  0.170E-01
  -2.251  0.181E-01  0.181E-01
  -2.241  0.194E-01  0.194E-01
  -2.231  0.236E-01  0.236E-01
  -2.221  0.281E-01  0.281E-01
  -2.211  0.329E-01  0.329E-01
  -2.201  0.379E-01  0.379E-01
  -2.191  0.431E-01  0.431E-01
  -2.181  0.486E-01  0.486E-01
  -2.171  0.543E-01  0.543E-01
  -2.161  0.603E-01  0.603E-01
  -2.151  0.665E-01  0.665E-01
  -2.141  0.730E-01  0.730E-01
  -2.131  0.797E-01  0.797E-01
  -2.121  0.468E-01  0.468E-01
  -2.111  0.478E-01  0.478E-01
  -2.101  0.487E-01  0.487E-01
  -2.091  0.495E-01  0.495E-01
  -2.081  0.501E-01  0.501E-01
  -2.071  0.505E-01  0.505E-01
  -2.061  0.509E-01  0.509E-01
  -2.051  0.510E-01  0.510E-01
  -2.041  0.511E-01  0.511E-01
  -2.031  0.510E-01  0.510E-01
  -2.021  0.507E-01  0.507E-01
  -2.011  0.503E-01  0.503E-01
  -2.001  0.498E-01  0.498E-01
  -1.991  0.491E-01  0.491E-01
  -1.981  0.483E-01  0.483E-01
  -1.971  0.473E-01  0.473E-01
  -1.961  0.462E-01  0.462E-01
  -1.951  0.450E-01  0.450E-01
  -1.941  0.436E-01  0.436E-01
  -1.931  0.420E-01  0.420E-01
  -1.921  0.419E-01  0.419E-01
  -1.911  0.428E-01  0.428E-01
  -1.901  0.437E-01  0.437E-01
  -1.891  0.446E-01  0.446E-01
  -1.881  0.456E-01  0.456E-01
  -1.871  0.466E-01  0.466E-01
  -1.861  0.476E-01  0.476E-01
  -1.851  0.487E-01  0.487E-01
  -1.841  0.498E-01  0.498E-01
  -1.831  0.508E-01  0.508E-01
  -1.821  0.519E-01  0.519E-01
  -1.811  0.530E-01  0.530E-01
  -1.801  0.541E-01  0.541E-01
  -1.791  0.580E-01  0.580E-01
  -1.781  0.627E-01  0.627E-01
  -1.771  0.674E-01  0.674E-01
  -1.761  0.720E-01  0.720E-01
  -1.751  0.766E-01  0.766E-01
  -1.741  0.810E-01  0.810E-01
  -1.731  0.854E-01  0.854E-01
  -1.721  0.898E-01  0.898E-01
  -1.711  0.942E-01  0.942E-01
  -1.701  0.984E-01  0.984E-01
  -1.691  0.103E+00  0.103E+00
  -1.681  0.107E+00  0.107E+00
  -1.671  0.111E+00  0.111E+00
  -1.661  0.115E+00  0.115E+00
  -1.651  0.119E+00  0.119E+00
  -1.641  0.122E+00  0.122E+00
  -1.631  0.126E+00  0.126E+00
  -1.621  0.130E+00  0.130E+00
  -1.611  0.133E+00  0.133E+00
  -1.601  0.137E+00  0.137E+00
  -1.591  0.139E+00  0.139E+00
  -1.581  0.138E+00  0.138E+00
  -1.571  0.137E+00  0.137E+00
  -1.561  0.137E+00  0.137E+00
  -1.551  0.136E+00  0.136E+00
  -1.541  0.136E+00  0.136E+00
  -1.531  0.136E+00  0.136E+00
  -1.521  0.136E+00  0.136E+00
  -1.511  0.136E+00  0.136E+00
  -1.501  0.136E+00  0.136E+00
  -1.491  0.137E+00  0.137E+00
  -1.481  0.138E+00  0.138E+00
  -1.471  0.139E+00  0.139E+00
  -1.461  0.141E+00  0.141E+00
  -1.451  0.143E+00  0.143E+00
  -1.441  0.145E+00  0.145E+00
  -1.431  0.146E+00  0.146E+00
  -1.421  0.148E+00  0.148E+00
  -1.411  0.150E+00  0.150E+00
  -1.401  0.152E+00  0.152E+00
  -1.391  0.153E+00  0.153E+00
  -1.381  0.155E+00  0.155E+00
  -1.371  0.157E+00  0.157E+00
  -1.361  0.159E+00  0.159E+00
  -1.351  0.160E+00  0.160E+00
  -1.341  0.162E+00  0.162E+00
  -1.331  0.164E+00  0.164E+00
  -1.321  0.165E+00  0.165E+00
  -1.311  0.167E+00  0.167E+00
  -1.301  0.169E+00  0.169E+00
  -1.291  0.171E+00  0.171E+00
  -1.281  0.172E+00  0.172E+00
  -1.271  0.174E+00  0.174E+00
  -1.261  0.176E+00  0.176E+00
  -1.251  0.177E+00  0.177E+00
  -1.241  0.163E+00  0.163E+00
  -1.231  0.163E+00  0.163E+00
  -1.221  0.163E+00  0.163E+00
  -1.211  0.163E+00  0.163E+00
  -1.201  0.162E+00  0.162E+00
  -1.191  0.162E+00  0.162E+00
  -1.181  0.162E+00  0.162E+00
  -1.171  0.161E+00  0.161E+00
  -1.161  0.161E+00  0.161E+00
  -1.151  0.161E+00  0.161E+00
  -1.141  0.160E+00  0.160E+00
  -1.131  0.160E+00  0.160E+00
  -1.121  0.160E+00  0.160E+00
  -1.111  0.159E+00  0.159E+00
  -1.101  0.159E+00  0.159E+00
  -1.091  0.158E+00  0.158E+00
  -1.081  0.158E+00  0.158E+00
  -1.071  0.157E+00  0.157E+00
  -1.061  0.156E+00  0.156E+00
  -1.051  0.156E+00  0.156E+00
  -1.041  0.155E+00  0.155E+00
  -1.031  0.154E+00  0.154E+00
  -1.021  0.153E+00  0.153E+00
  -1.011  0.153E+00  0.153E+00
  -1.001  0.153E+00  0.153E+00
  -0.991  0.153E+00  0.153E+00
  -0.981  0.154E+00  0.154E+00
  -0.971  0.156E+00  0.156E+00
  -0.961  0.158E+00  0.158E+00
  -0.951  0.160E+00  0.160E+00
  -0.941  0.163E+00  0.163E+00
  -0.931  0.166E+00  0.166E+00
  -0.921  0.169E+00  0.169E+00
  -0.911  0.171E+00  0.171E+00
  -0.901  0.174E+00  0.174E+00
  -0.891  0.176E+00  0.176E+00
  -0.881  0.178E+00  0.178E+00
  -0.871  0.180E+00  0.180E+00
  -0.861  0.182E+00  0.182E+00
  -0.851  0.184E+00  0.184E+00
  -0.841  0.186E+00  0.186E+00
  -0.831  0.188E+00  0.188E+00
  -0.821  0.190E+00  0.190E+00
  -0.811  0.192E+00  0.192E+00
  -0.801  0.193E+00  0.193E+00
  -0.791  0.195E+00  0.195E+00
  -0.781  0.197E+00  0.197E+00
  -0.771  0.199E+00  0.199E+00
  -0.761  0.203E+00  0.203E+00
  -0.751  0.207E+00  0.207E+00
  -0.741  0.211E+00  0.211E+00
  -0.731  0.215E+00  0.215E+00
  -0.721  0.219E+00  0.219E+00
  -0.711  0.223E+00  0.223E+00
  -0.701  0.228E+00  0.228E+00
  -0.691  0.232E+00  0.232E+00
  -0.681  0.237E+00  0.237E+00
  -0.671  0.242E+00  0.242E+00
  -0.661  0.247E+00  0.247E+00
  -0.651  0.252E+00  0.252E+00
  -0.641  0.257E+00  0.257E+00
  -0.631  0.263E+00  0.263E+00
  -0.621  0.268E+00  0.268E+00
  -0.611  0.274E+00  0.274E+00
  -0.601  0.280E+00  0.280E+00
  -0.591  0.281E+00  0.281E+00
  -0.581  0.277E+00  0.277E+00
  -0.571  0.272E+00  0.272E+00
  -0.561  0.268E+00  0.268E+00
  -0.551  0.264E+00  0.264E+00
  -0.541  0.260E+00  0.260E+00
  -0.531  0.256E+00  0.256E+00
  -0.521  0.252E+00  0.252E+00
  -0.511  0.455E+00  0.455E+00
  -0.501  0.387E+00  0.387E+00
  -0.491  0.330E+00  0.330E+00
  -0.481  0.285E+00  0.285E+00
  -0.471  0.250E+00  0.250E+00
  -0.461  0.226E+00  0.226E+00
  -0.451  0.219E+00  0.219E+00
  -0.441  0.214E+00  0.214E+00
  -0.431  0.209E+00  0.209E+00
  -0.421  0.204E+00  0.204E+00
  -0.411  0.199E+00  0.199E+00
  -0.401  0.194E+00  0.194E+00
  -0.391  0.188E+00  0.188E+00
  -0.381  0.183E+00  0.183E+00
  -0.371  0.178E+00  0.178E+00
  -0.361  0.172E+00  0.172E+00
  -0.351  0.167E+00  0.167E+00
  -0.341  0.161E+00  0.161E+00
  -0.331  0.156E+00  0.156E+00
  -0.321  0.150E+00  0.150E+00
  -0.311  0.144E+00  0.144E+00
  -0.301  0.138E+00  0.138E+00
  -0.291  0.132E+00  0.132E+00
  -0.281  0.127E+00  0.127E+00
  -0.271  0.122E+00  0.122E+00
  -0.261  0.119E+00  0.119E+00
  -0.251  0.116E+00  0.116E+00
  -0.241  0.112E+00  0.112E+00
  -0.231  0.109E+00  0.109E+00
  -0.221  0.106E+00  0.106E+00
  -0.211  0.989E-01  0.989E-01
  -0.201  0.942E-01  0.942E-01
  -0.191  0.892E-01  0.892E-01
  -0.181  0.838E-01  0.838E-01
  -0.171  0.857E-01  0.857E-01
  -0.161  0.877E-01  0.877E-01
  -0.151  0.894E-01  0.894E-01
  -0.141  0.954E-01  0.954E-01
  -0.131  0.101E+00  0.101E+00
  -0.121  0.106E+00  0.106E+00
  -0.111  0.110E+00  0.110E+00
  -0.101  0.114E+00  0.114E+00
  -0.091  0.116E+00  0.116E+00
  -0.081  0.104E+00  0.104E+00
  -0.071  0.869E-01  0.869E-01
  -0.061  0.618E-01  0.618E-01
  -0.051  0.620E-01  0.620E-01
  -0.041  0.618E-01  0.618E-01
  -0.031  0.617E-01  0.617E-01
  -0.021  0.615E-01  0.615E-01
  -0.011  0.613E-01  0.613E-01
  -0.001  0.610E-01  0.610E-01
   0.009  0.608E-01  0.608E-01
   0.019  0.605E-01  0.605E-01
   0.029  0.604E-01  0.604E-01
   0.039  0.609E-01  0.609E-01
   0.049  0.625E-01  0.625E-01
   0.059  0.645E-01  0.645E-01
   0.069  0.669E-01  0.669E-01
   0.079  0.696E-01  0.696E-01
   0.089  0.731E-01  0.731E-01
   0.099  0.786E-01  0.786E-01
   0.109  0.864E-01  0.864E-01
   0.119  0.964E-01  0.964E-01
   0.129  0.109E+00  0.109E+00
   0.139  0.123E+00  0.123E+00
   0.149  0.140E+00  0.140E+00
   0.159  0.159E+00  0.159E+00
   0.169  0.180E+00  0.180E+00
   0.179  0.661E-01  0.661E-01
   0.189  0.658E-01  0.658E-01
   0.199  0.655E-01  0.655E-01
   0.209  0.653E-01  0.653E-01
   0.219  0.650E-01  0.650E-01
   0.229  0.122E+00  0.122E+00
   0.239  0.117E+00  0.117E+00
   0.249  0.112E+00  0.112E+00
   0.259  0.108E+00  0.108E+00
   0.269  0.103E+00  0.103E+00
   0.279  0.988E-01  0.988E-01
   0.289  0.946E-01  0.946E-01
   0.299  0.904E-01  0.904E-01
   0.309  0.864E-01  0.864E-01
   0.319  0.826E-01  0.826E-01
   0.329  0.789E-01  0.789E-01
   0.339  0.753E-01  0.753E-01
   0.349  0.718E-01  0.718E-01
   0.359  0.685E-01  0.685E-01
   0.369  0.654E-01  0.654E-01
   0.379  0.623E-01  0.623E-01
   0.389  0.594E-01  0.594E-01
   0.399  0.567E-01  0.567E-01
   0.409  0.542E-01  0.542E-01
   0.419  0.518E-01  0.518E-01
   0.429  0.495E-01  0.495E-01
   0.439  0.474E-01  0.474E-01
   0.449  0.454E-01  0.454E-01
   0.459  0.444E-01  0.444E-01
   0.469  0.443E-01  0.443E-01
   0.479  0.442E-01  0.442E-01
   0.489  0.441E-01  0.441E-01
   0.499  0.440E-01  0.440E-01
   0.509  0.440E-01  0.440E-01
   0.519  0.439E-01  0.439E-01
   0.529  0.439E-01  0.439E-01
   0.539  0.438E-01  0.438E-01
   0.549  0.438E-01  0.438E-01
   0.559  0.438E-01  0.438E-01
   0.569  0.438E-01  0.438E-01
   0.579  0.438E-01  0.438E-01
   0.589  0.438E-01  0.438E-01
   0.599  0.438E-01  0.438E-01
   0.609  0.439E-01  0.439E-01
   0.619  0.439E-01  0.439E-01
   0.629  0.444E-01  0.444E-01
   0.639  0.488E-01  0.488E-01
   0.649  0.532E-01  0.532E-01
   0.659  0.574E-01  0.574E-01
   0.669  0.614E-01  0.614E-01
   0.679  0.654E-01  0.654E-01
   0.689  0.692E-01  0.692E-01
   0.699  0.729E-01  0.729E-01
   0.709  0.764E-01  0.764E-01
   0.719  0.799E-01  0.799E-01
   0.729  0.832E-01  0.832E-01
   0.739  0.864E-01  0.864E-01
   0.749  0.894E-01  0.894E-01
   0.759  0.924E-01  0.924E-01
   0.769  0.952E-01  0.952E-01
   0.779  0.979E-01  0.979E-01
   0.789  0.100E+00  0.100E+00
   0.799  0.103E+00  0.103E+00
   0.809  0.105E+00  0.105E+00
   0.819  0.107E+00  0.107E+00
   0.829  0.109E+00  0.109E+00
   0.839  0.111E+00  0.111E+00
   0.849  0.113E+00  0.113E+00
   0.859  0.115E+00  0.115E+00
   0.869  0.116E+00  0.116E+00
   0.879  0.695E-01  0.695E-01
   0.889  0.699E-01  0.699E-01
   0.899  0.703E-01  0.703E-01
   0.909  0.706E-01  0.706E-01
   0.919  0.710E-01  0.710E-01
   0.929  0.712E-01  0.712E-01
   0.939  0.715E-01  0.715E-01
   0.949  0.718E-01  0.718E-01
   0.959  0.720E-01  0.720E-01
   0.969  0.721E-01  0.721E-01
   0.979  0.723E-01  0.723E-01
   0.989  0.724E-01  0.724E-01
   0.999  0.725E-01  0.725E-01
   1.009  0.726E-01  0.726E-01
   1.019  0.726E-01  0.726E-01
   1.029  0.726E-01  0.726E-01
   1.039  0.726E-01  0.726E-01
   1.049  0.725E-01  0.725E-01
   1.059  0.725E-01  0.725E-01
   1.069  0.724E-01  0.724E-01
   1.079  0.722E-01  0.722E-01
   1.089  0.720E-01  0.720E-01
   1.099  0.719E-01  0.719E-01
   1.109  0.716E-01  0.716E-01
   1.119  0.714E-01  0.714E-01
   1.129  0.711E-01  0.711E-01
   1.139  0.708E-01  0.708E-01
   1.149  0.704E-01  0.704E-01
   1.159  0.701E-01  0.701E-01
   1.169  0.697E-01  0.697E-01
   1.179  0.694E-01  0.694E-01
   1.189  0.690E-01  0.690E-01
   1.199  0.687E-01  0.687E-01
   1.209  0.684E-01  0.684E-01
   1.219  0.682E-01  0.682E-01
   1.229  0.680E-01  0.680E-01
   1.239  0.683E-01  0.683E-01
   1.249  0.715E-01  0.715E-01
   1.259  0.743E-01  0.743E-01
   1.269  0.769E-01  0.769E-01
   1.279  0.792E-01  0.792E-01
   1.289  0.812E-01  0.812E-01
   1.299  0.829E-01  0.829E-01
   1.309  0.843E-01  0.843E-01
   1.319  0.855E-01  0.855E-01
   1.329  0.863E-01  0.863E-01
   1.339  0.869E-01  0.869E-01
   1.349  0.872E-01  0.872E-01
   1.359  0.872E-01  0.872E-01
   1.369  0.859E-01  0.859E-01
   1.379  0.913E-01  0.913E-01
   1.389  0.933E-01  0.933E-01
   1.399  0.929E-01  0.929E-01
   1.409  0.902E-01  0.902E-01
   1.419  0.851E-01  0.851E-01
   1.429  0.777E-01  0.777E-01
   1.439  0.679E-01  0.679E-01
   1.449  0.575E-01  0.575E-01
   1.459  0.556E-01  0.556E-01
   1.469  0.538E-01  0.538E-01
   1.479  0.533E-01  0.533E-01
   1.489  0.156E+00  0.156E+00
   1.499  0.151E+00  0.151E+00
   1.509  0.145E+00  0.145E+00
   1.519  0.140E+00  0.140E+00
   1.529  0.135E+00  0.135E+00
   1.539  0.129E+00  0.129E+00
   1.549  0.123E+00  0.123E+00
   1.559  0.117E+00  0.117E+00
   1.569  0.112E+00  0.112E+00
   1.579  0.106E+00  0.106E+00
   1.589  0.101E+00  0.101E+00
   1.599  0.970E-01  0.970E-01
   1.609  0.929E-01  0.929E-01
   1.619  0.891E-01  0.891E-01
   1.629  0.882E-01  0.882E-01
   1.639  0.884E-01  0.884E-01
   1.649  0.890E-01  0.890E-01
   1.659  0.900E-01  0.900E-01
   1.669  0.912E-01  0.912E-01
   1.679  0.927E-01  0.927E-01
   1.689  0.925E-01  0.925E-01
   1.699  0.946E-01  0.946E-01
   1.709  0.969E-01  0.969E-01
   1.719  0.993E-01  0.993E-01
   1.729  0.102E+00  0.102E+00
   1.739  0.105E+00  0.105E+00
   1.749  0.108E+00  0.108E+00
   1.759  0.111E+00  0.111E+00
   1.769  0.114E+00  0.114E+00
   1.779  0.117E+00  0.117E+00
   1.789  0.121E+00  0.121E+00
   1.799  0.124E+00  0.124E+00
   1.809  0.128E+00  0.128E+00
   1.819  0.845E-01  0.845E-01
   1.829  0.836E-01  0.836E-01
   1.839  0.824E-01  0.824E-01
   1.849  0.808E-01  0.808E-01
   1.859  0.789E-01  0.789E-01
   1.869  0.766E-01  0.766E-01
   1.879  0.739E-01  0.739E-01
   1.889  0.709E-01  0.709E-01
   1.899  0.675E-01  0.675E-01
   1.909  0.639E-01  0.639E-01
   1.919  0.600E-01  0.600E-01
   1.929  0.860E-01  0.860E-01
   1.939  0.130E+00  0.130E+00
   1.949  0.119E+00  0.119E+00
   1.959  0.543E-01  0.543E-01
   1.969  0.486E-01  0.486E-01
   1.979  0.428E-01  0.428E-01
   1.989  0.400E-01  0.400E-01
   1.999  0.398E-01  0.398E-01
   2.009  0.396E-01  0.396E-01
   2.019  0.394E-01  0.394E-01
   2.029  0.391E-01  0.391E-01
   2.039  0.388E-01  0.388E-01
   2.049  0.385E-01  0.385E-01
   2.059  0.382E-01  0.382E-01
   2.069  0.378E-01  0.378E-01
   2.079  0.374E-01  0.374E-01
   2.089  0.370E-01  0.370E-01
   2.099  0.365E-01  0.365E-01
   2.109  0.360E-01  0.360E-01
   2.119  0.355E-01  0.355E-01
   2.129  0.350E-01  0.350E-01
   2.139  0.344E-01  0.344E-01
   2.149  0.337E-01  0.337E-01
   2.159  0.331E-01  0.331E-01
   2.169  0.326E-01  0.326E-01
   2.179  0.321E-01  0.321E-01
   2.189  0.316E-01  0.316E-01
   2.199  0.312E-01  0.312E-01
   2.209  0.308E-01  0.308E-01
   2.219  0.303E-01  0.303E-01
   2.229  0.299E-01  0.299E-01
   2.239  0.295E-01  0.295E-01
   2.249  0.291E-01  0.291E-01
   2.259  0.288E-01  0.288E-01
   2.269  0.284E-01  0.284E-01
   2.279  0.280E-01  0.280E-01
   2.289  0.277E-01  0.277E-01
   2.299  0.274E-01  0.274E-01
   2.309  0.271E-01  0.271E-01
   2.319  0.267E-01  0.267E-01
   2.329  0.264E-01  0.264E-01
   2.339  0.261E-01  0.261E-01
   2.349  0.258E-01  0.258E-01
   2.359  0.255E-01  0.255E-01
   2.369  0.252E-01  0.252E-01
   2.379  0.249E-01  0.249E-01
   2.389  0.246E-01  0.246E-01
   2.399  0.243E-01  0.243E-01
   2.409  0.240E-01  0.240E-01
   2.419  0.237E-01  0.237E-01
   2.429  0.234E-01  0.234E-01
   2.439  0.232E-01  0.232E-01
   2.449  0.229E-01  0.229E-01
   2.459  0.226E-01  0.226E-01
   2.469  0.223E-01  0.223E-01
   2.479  0.223E-01  0.223E-01
   2.489  0.220E-01  0.220E-01
   2.499  0.218E-01  0.218E-01
   2.509  0.215E-01  0.215E-01
   2.519  0.212E-01  0.212E-01
   2.529  0.209E-01  0.209E-01
   2.539  0.207E-01  0.207E-01
   2.549  0.204E-01  0.204E-01
   2.559  0.201E-01  0.201E-01
   2.569  0.199E-01  0.199E-01
   2.579  0.196E-01  0.196E-01
   2.589  0.193E-01  0.193E-01
   2.599  0.191E-01  0.191E-01
   2.609  0.188E-01  0.188E-01
   2.619  0.186E-01  0.186E-01
   2.629  0.183E-01  0.183E-01
   2.639  0.181E-01  0.181E-01
   2.649  0.178E-01  0.178E-01
   2.659  0.176E-01  0.176E-01
   2.669  0.174E-01  0.174E-01
   2.679  0.172E-01  0.172E-01
   2.689  0.170E-01  0.170E-01
   2.699  0.168E-01  0.168E-01
   2.709  0.167E-01  0.167E-01
   2.719  0.165E-01  0.165E-01
   2.729  0.164E-01  0.164E-01
   2.739  0.163E-01  0.163E-01
   2.749  0.162E-01  0.162E-01
   2.759  0.161E-01  0.161E-01
   2.769  0.160E-01  0.160E-01
   2.779  0.159E-01  0.159E-01
   2.789  0.158E-01  0.158E-01
   2.799  0.157E-01  0.157E-01
   2.809  0.156E-01  0.156E-01
   2.819  0.155E-01  0.155E-01
   2.829  0.154E-01  0.154E-01
   2.839  0.154E-01  0.154E-01
   2.849  0.153E-01  0.153E-01
   2.859  0.152E-01  0.152E-01
   2.869  0.151E-01  0.151E-01
   2.879  0.151E-01  0.151E-01
   2.889  0.150E-01  0.150E-01
   2.899  0.150E-01  0.150E-01
   2.909  0.149E-01  0.149E-01
   2.919  0.149E-01  0.149E-01
   2.929  0.148E-01  0.148E-01
   2.939  0.148E-01  0.148E-01
   2.949  0.149E-01  0.149E-01
   2.959  0.150E-01  0.150E-01
   2.969  0.151E-01  0.151E-01
   2.979  0.152E-01  0.152E-01
   2.989  0.153E-01  0.153E-01
   2.999  0.154E-01  0.154E-01
   3.009  0.155E-01  0.155E-01
   3.019  0.156E-01  0.156E-01
   3.029  0.157E-01  0.157E-01
   3.039  0.159E-01  0.159E-01
   3.049  0.160E-01  0.160E-01
   3.059  0.161E-01  0.161E-01
   3.069  0.163E-01  0.163E-01
   3.079  0.164E-01  0.164E-01
   3.089  0.166E-01  0.166E-01
   3.099  0.167E-01  0.167E-01
   3.109  0.169E-01  0.169E-01
   3.119  0.170E-01  0.170E-01
   3.129  0.172E-01  0.172E-01
   3.139  0.174E-01  0.174E-01
   3.149  0.178E-01  0.178E-01
   3.159  0.179E-01  0.179E-01
   3.169  0.336E+00  0.336E+00
   3.179  0.280E+00  0.280E+00
   3.189  0.221E+00  0.221E+00
   3.199  0.159E+00  0.159E+00
   3.209  0.943E-01  0.943E-01
   3.219  0.264E-01  0.264E-01
   3.229  0.135E-01  0.135E-01
   3.239  0.801E-02  0.801E-02
   3.249  0.402E-02  0.402E-02
   3.259  0.150E-02  0.150E-02
   3.269  0.444E-03  0.444E-03
   3.279  0.395E-03  0.395E-03
   3.289  0.377E-03  0.377E-03
   3.299  0.359E-03  0.359E-03
   3.309  0.342E-03  0.342E-03
   3.319  0.325E-03  0.325E-03
   3.329  0.308E-03  0.308E-03
   3.339  0.292E-03  0.292E-03
   3.349  0.276E-03  0.276E-03
   3.359  0.261E-03  0.261E-03
   3.369  0.246E-03  0.246E-03
   3.379  0.232E-03  0.232E-03
   3.389  0.218E-03  0.218E-03
   3.399  0.204E-03  0.204E-03
   3.409  0.191E-03  0.191E-03
   3.419  0.179E-03  0.179E-03
   3.429  0.167E-03  0.167E-03
   3.439  0.155E-03  0.155E-03
   3.449  0.143E-03  0.143E-03
   3.459  0.133E-03  0.133E-03
   3.469  0.122E-03  0.122E-03
   3.479  0.112E-03  0.112E-03
   3.489  0.102E-03  0.102E-03
   3.499  0.933E-04  0.933E-04
   3.509  0.846E-04  0.846E-04
   3.519  0.763E-04  0.763E-04
   3.529  0.685E-04  0.685E-04
   3.539  0.610E-04  0.610E-04
   3.549  0.541E-04  0.541E-04
   3.559  0.475E-04  0.475E-04
   3.569  0.414E-04  0.414E-04
   3.579  0.356E-04  0.356E-04
   3.589  0.302E-04  0.302E-04
   3.599  0.250E-04  0.250E-04
   3.609  0.202E-04  0.202E-04
   3.619  0.157E-04  0.157E-04
   3.629  0.115E-04  0.115E-04
   3.639  0.764E-05  0.764E-05
   3.649  0.411E-05  0.411E-05
   3.659  0.889E-06  0.889E-06
   3.669  0.000E+00  0.000E+00
